Region	Enabled	DataFlag	Start	End	Step	Sweeps	Dwell	Mode	CAE/CRR	Mag	Divide by Ten	Notes	Function	Line-Style	Point-Style	Sweeps-Acquired
1	true	Original	520.000	550.000	0.100	3	0.200	CAE	20.00	High	false	O1s-Sb3d	7 Channel Acquisition			3
Layer	Enabled	DataFlag	Notes	Formula	Line-Style	Point-Style
1	True		Ch(1)+Ch(2)+Ch(3)+Ch(4)+Ch(5)+Ch(6)+Ch(7)		
Energy	Counts
520.000	10981
520.100	10889
520.200	11000
520.300	10936
520.400	11100
520.500	10889
520.600	10981
520.700	10854
520.800	10967
520.900	11038
521.000	10888
521.100	11051
521.200	11243
521.300	11044
521.400	11205
521.500	11060
521.600	11193
521.700	11080
521.800	11134
521.900	11066
522.000	11104
522.100	11187
522.200	11152
522.300	11184
522.400	11343
522.500	11194
522.600	11231
522.700	11144
522.800	11275
522.900	11284
523.000	11321
523.100	11307
523.200	11265
523.300	11262
523.400	11132
523.500	11190
523.600	11241
523.700	11016
523.800	11204
523.900	11347
524.000	11237
524.100	11175
524.200	11088
524.300	11235
524.400	11119
524.500	11250
524.600	11128
524.700	11083
524.800	11143
524.900	11196
525.000	11295
525.100	11316
525.200	11203
525.300	11021
525.400	11080
525.500	11189
525.600	11114
525.700	11022
525.800	10930
525.900	11220
526.000	10973
526.100	10962
526.200	11132
526.300	10953
526.400	10855
526.500	11096
526.600	10929
526.700	11122
526.800	11157
526.900	11075
527.000	10950
527.100	10994
527.200	11036
527.300	10995
527.400	11018
527.500	11151
527.600	11134
527.700	11059
527.800	11192
527.900	11117
528.000	11168
528.100	10958
528.200	11137
528.300	10987
528.400	10965
528.500	11063
528.600	10980
528.700	10908
528.800	11134
528.900	10981
529.000	11139
529.100	11010
529.200	11084
529.300	11153
529.400	11066
529.500	11148
529.600	11227
529.700	10958
529.800	11022
529.900	11015
530.000	11206
530.100	11297
530.200	11046
530.300	11222
530.400	11368
530.500	11330
530.600	11365
530.700	11323
530.800	11471
530.900	11798
531.000	11949
531.100	12365
531.200	12385
531.300	12425
531.400	12529
531.500	12825
531.600	12880
531.700	13194
531.800	13086
531.900	13211
532.000	13018
532.100	13033
532.200	13191
532.300	13406
532.400	13467
532.500	13579
532.600	13656
532.700	13704
532.800	13612
532.900	13690
533.000	13624
533.100	13449
533.200	13256
533.300	13033
533.400	12704
533.500	12699
533.600	12648
533.700	12379
533.800	11940
533.900	11986
534.000	11882
534.100	11822
534.200	11628
534.300	11470
534.400	11586
534.500	11395
534.600	11320
534.700	11366
534.800	11113
534.900	11142
535.000	11335
535.100	11155
535.200	11319
535.300	11289
535.400	11099
535.500	11258
535.600	11282
535.700	11459
535.800	11134
535.900	11218
536.000	11152
536.100	11204
536.200	11121
536.300	11257
536.400	11312
536.500	11299
536.600	11308
536.700	11375
536.800	11270
536.900	11248
537.000	11343
537.100	11286
537.200	11329
537.300	11289
537.400	11285
537.500	11261
537.600	11033
537.700	11169
537.800	11088
537.900	11400
538.000	11171
538.100	11294
538.200	11392
538.300	11318
538.400	11160
538.500	11143
538.600	11035
538.700	11063
538.800	11302
538.900	11220
539.000	11220
539.100	11370
539.200	11251
539.300	11199
539.400	11063
539.500	11066
539.600	11222
539.700	11277
539.800	11225
539.900	11382
540.000	11307
540.100	11217
540.200	11220
540.300	11174
540.400	11170
540.500	11141
540.600	11304
540.700	11209
540.800	11262
540.900	11493
541.000	11280
541.100	11187
541.200	11375
541.300	11256
541.400	11225
541.500	11252
541.600	11141
541.700	10975
541.800	11237
541.900	11061
542.000	11226
542.100	11114
542.200	11265
542.300	11250
542.400	11225
542.500	11116
542.600	11064
542.700	11122
542.800	11359
542.900	11375
543.000	11280
543.100	11382
543.200	11213
543.300	11239
543.400	11275
543.500	11450
543.600	11420
543.700	11231
543.800	11338
543.900	11283
544.000	11379
544.100	11284
544.200	11298
544.300	11431
544.400	11136
544.500	11197
544.600	11212
544.700	11344
544.800	11386
544.900	11254
545.000	11323
545.100	11249
545.200	11226
545.300	11397
545.400	11404
545.500	11438
545.600	11300
545.700	11422
545.800	11452
545.900	11423
546.000	11432
546.100	11247
546.200	11310
546.300	11491
546.400	11411
546.500	11217
546.600	11286
546.700	11513
546.800	11224
546.900	11290
547.000	11394
547.100	11491
547.200	11328
547.300	11492
547.400	11423
547.500	11376
547.600	11342
547.700	11310
547.800	11133
547.900	11329
548.000	11274
548.100	11344
548.200	11526
548.300	11377
548.400	11313
548.500	11553
548.600	11450
548.700	11371
548.800	11286
548.900	11405
549.000	11379
549.100	11294
549.200	11324
549.300	11474
549.400	11451
549.500	11394
549.600	11294
549.700	11355
549.800	11255
549.900	11208
550.000	11366
Region	Enabled	DataFlag	Start	End	Step	Sweeps	Dwell	Mode	CAE/CRR	Mag	Divide by Ten	Notes	Function	Line-Style	Point-Style	Sweeps-Acquired
2	true	Original	280.000	300.000	0.100	3	0.200	CAE	20.00	High	false	C1s	7 Channel Acquisition			3
Layer	Enabled	DataFlag	Notes	Formula	Line-Style	Point-Style
1	True		Ch(1)+Ch(2)+Ch(3)+Ch(4)+Ch(5)+Ch(6)+Ch(7)		
Energy	Counts
280.000	6828
280.100	7023
280.200	7051
280.300	6848
280.400	6852
280.500	6911
280.600	6964
280.700	7043
280.800	6983
280.900	6791
281.000	6777
281.100	6884
281.200	6932
281.300	6987
281.400	6970
281.500	6842
281.600	6853
281.700	6929
281.800	6849
281.900	6835
282.000	6846
282.100	6975
282.200	6984
282.300	7057
282.400	7168
282.500	7056
282.600	7287
282.700	7365
282.800	7154
282.900	7289
283.000	7353
283.100	7504
283.200	7574
283.300	7774
283.400	7920
283.500	8086
283.600	8499
283.700	8854
283.800	9136
283.900	10016
284.000	10871
284.100	12056
284.200	13505
284.300	14824
284.400	16669
284.500	18664
284.600	20428
284.700	22327
284.800	23807
284.900	24596
285.000	25043
285.100	24898
285.200	24184
285.300	23167
285.400	21443
285.500	19933
285.600	18527
285.700	16942
285.800	15596
285.900	14421
286.000	13309
286.100	12658
286.200	11852
286.300	11187
286.400	10743
286.500	10257
286.600	9785
286.700	9342
286.800	9229
286.900	8941
287.000	8585
287.100	8686
287.200	8627
287.300	8375
287.400	8311
287.500	8301
287.600	8243
287.700	8243
287.800	8371
287.900	8433
288.000	8368
288.100	8110
288.200	8365
288.300	8386
288.400	8282
288.500	8326
288.600	8243
288.700	8140
288.800	8303
288.900	8232
289.000	8208
289.100	8363
289.200	8223
289.300	8193
289.400	8120
289.500	8027
289.600	8019
289.700	7832
289.800	7937
289.900	7869
290.000	8097
290.100	7949
290.200	7912
290.300	7983
290.400	7877
290.500	7870
290.600	7929
290.700	7911
290.800	7827
290.900	7933
291.000	8048
291.100	7735
291.200	7784
291.300	7796
291.400	7785
291.500	7786
291.600	7682
291.700	7579
291.800	7739
291.900	7714
292.000	7766
292.100	7795
292.200	7709
292.300	7742
292.400	7848
292.500	7775
292.600	7693
292.700	7894
292.800	7706
292.900	7788
293.000	7688
293.100	7545
293.200	7813
293.300	7720
293.400	7602
293.500	7577
293.600	7864
293.700	7761
293.800	7765
293.900	7878
294.000	7828
294.100	7793
294.200	7787
294.300	7717
294.400	7768
294.500	7781
294.600	7866
294.700	7908
294.800	7807
294.900	7868
295.000	7771
295.100	7937
295.200	7858
295.300	7968
295.400	7907
295.500	7971
295.600	7974
295.700	7926
295.800	7977
295.900	7847
296.000	7837
296.100	7897
296.200	8048
296.300	7973
296.400	7999
296.500	8037
296.600	8011
296.700	8117
296.800	8077
296.900	7999
297.000	8167
297.100	8139
297.200	8111
297.300	8119
297.400	8098
297.500	8178
297.600	8071
297.700	8035
297.800	8085
297.900	8242
298.000	8161
298.100	8255
298.200	8157
298.300	8140
298.400	8160
298.500	8128
298.600	8296
298.700	8322
298.800	8177
298.900	8209
299.000	8328
299.100	8359
299.200	8354
299.300	8321
299.400	8303
299.500	8462
299.600	8487
299.700	8456
299.800	8301
299.900	8462
300.000	8469
Region	Enabled	DataFlag	Start	End	Step	Sweeps	Dwell	Mode	CAE/CRR	Mag	Divide by Ten	Notes	Function	Line-Style	Point-Style	Sweeps-Acquired
3	true	Original	160.000	180.000	0.100	10	0.200	CAE	20.00	High	false	S2p	7 Channel Acquisition			10
Layer	Enabled	DataFlag	Notes	Formula	Line-Style	Point-Style
1	True		Ch(1)+Ch(2)+Ch(3)+Ch(4)+Ch(5)+Ch(6)+Ch(7)		
Energy	Counts
160.000	11435
160.100	11556
160.200	11575
160.300	11731
160.400	11711
160.500	11737
160.600	11705
160.700	11706
160.800	11769
160.900	11743
161.000	11731
161.100	11746
161.200	11678
161.300	11907
161.400	11954
161.500	11992
161.600	11784
161.700	11822
161.800	11673
161.900	11600
162.000	11716
162.100	11697
162.200	11956
162.300	12057
162.400	11950
162.500	12115
162.600	12184
162.700	12084
162.800	12377
162.900	12492
163.000	12534
163.100	12766
163.200	13021
163.300	13389
163.400	13900
163.500	14264
163.600	15147
163.700	15695
163.800	16348
163.900	16661
164.000	17083
164.100	17313
164.200	17153
164.300	17132
164.400	16552
164.500	16294
164.600	15992
164.700	15942
164.800	15615
164.900	15761
165.000	15514
165.100	15364
165.200	15505
165.300	15345
165.400	14974
165.500	14878
165.600	14508
165.700	14414
165.800	13834
165.900	13721
166.000	13420
166.100	13403
166.200	13046
166.300	13050
166.400	12848
166.500	12994
166.600	12679
166.700	12732
166.800	12631
166.900	12851
167.000	12528
167.100	12744
167.200	12478
167.300	12685
167.400	12524
167.500	12501
167.600	12573
167.700	12510
167.800	12634
167.900	12481
168.000	12579
168.100	12455
168.200	12658
168.300	12532
168.400	12400
168.500	12422
168.600	12682
168.700	12584
168.800	12595
168.900	12529
169.000	12552
169.100	12634
169.200	12651
169.300	12820
169.400	12622
169.500	12668
169.600	12594
169.700	12644
169.800	12864
169.900	12567
170.000	12542
170.100	12664
170.200	12609
170.300	12667
170.400	12482
170.500	12660
170.600	12730
170.700	12672
170.800	12913
170.900	12678
171.000	12610
171.100	12839
171.200	12735
171.300	12689
171.400	12947
171.500	12903
171.600	12884
171.700	12840
171.800	12924
171.900	12790
172.000	12829
172.100	12820
172.200	12782
172.300	12901
172.400	12886
172.500	12820
172.600	12882
172.700	13046
172.800	13013
172.900	12887
173.000	12743
173.100	12800
173.200	12805
173.300	12998
173.400	13044
173.500	13021
173.600	13037
173.700	13292
173.800	13023
173.900	12984
174.000	13011
174.100	13156
174.200	13204
174.300	12929
174.400	13070
174.500	13144
174.600	13060
174.700	13015
174.800	13192
174.900	13156
175.000	12959
175.100	13210
175.200	13105
175.300	13182
175.400	13231
175.500	13139
175.600	13220
175.700	13138
175.800	13114
175.900	13232
176.000	13285
176.100	13134
176.200	13397
176.300	13253
176.400	13277
176.500	13440
176.600	13440
176.700	13330
176.800	13258
176.900	13245
177.000	13247
177.100	13411
177.200	13352
177.300	13580
177.400	13346
177.500	13322
177.600	13407
177.700	13469
177.800	13491
177.900	13371
178.000	13386
178.100	13532
178.200	13346
178.300	13532
178.400	13471
178.500	13460
178.600	13601
178.700	13525
178.800	13300
178.900	13402
179.000	13179
179.100	13423
179.200	13593
179.300	13731
179.400	13785
179.500	13496
179.600	13432
179.700	13672
179.800	13571
179.900	13576
180.000	13715
Region	Enabled	DataFlag	Start	End	Step	Sweeps	Dwell	Mode	CAE/CRR	Mag	Divide by Ten	Notes	Function	Line-Style	Point-Style	Sweeps-Acquired
4	true	Original	390.000	410.000	0.100	10	0.200	CAE	20.00	High	false	N1s (0.5, 0, 17, 345 deg)	7 Channel Acquisition			10
Layer	Enabled	DataFlag	Notes	Formula	Line-Style	Point-Style
1	True		Ch(1)+Ch(2)+Ch(3)+Ch(4)+Ch(5)+Ch(6)+Ch(7)		
Energy	Counts
390.000	32333
390.100	32520
390.200	32164
390.300	32250
390.400	32552
390.500	32379
390.600	32507
390.700	32292
390.800	32300
390.900	32548
391.000	32393
391.100	32427
391.200	32773
391.300	32626
391.400	32460
391.500	32286
391.600	32415
391.700	32349
391.800	32588
391.900	32795
392.000	32576
392.100	32719
392.200	32819
392.300	32553
392.400	32225
392.500	32400
392.600	32522
392.700	32217
392.800	32447
392.900	32600
393.000	32242
393.100	32409
393.200	32502
393.300	32477
393.400	32333
393.500	32504
393.600	32613
393.700	32210
393.800	32186
393.900	32262
394.000	32510
394.100	32578
394.200	32521
394.300	32397
394.400	32459
394.500	32412
394.600	32297
394.700	32272
394.800	32117
394.900	32371
395.000	32659
395.100	32522
395.200	32424
395.300	32360
395.400	32406
395.500	32446
395.600	32106
395.700	32624
395.800	32757
395.900	32543
396.000	32605
396.100	32128
396.200	32327
396.300	32264
396.400	32594
396.500	32489
396.600	32637
396.700	32665
396.800	32500
396.900	32578
397.000	32331
397.100	32445
397.200	32417
397.300	32581
397.400	32462
397.500	32432
397.600	32560
397.700	32685
397.800	32788
397.900	32985
398.000	32612
398.100	32831
398.200	32952
398.300	32341
398.400	32399
398.500	32517
398.600	32722
398.700	32689
398.800	32644
398.900	32794
399.000	33063
399.100	33120
399.200	33143
399.300	32666
399.400	33101
399.500	33763
399.600	33937
399.700	33985
399.800	34451
399.900	34497
400.000	34231
400.100	34558
400.200	34353
400.300	34530
400.400	34334
400.500	34057
400.600	33753
400.700	33628
400.800	33921
400.900	33629
401.000	33143
401.100	33006
401.200	33211
401.300	33210
401.400	32917
401.500	33014
401.600	32754
401.700	32745
401.800	32732
401.900	32746
402.000	32686
402.100	32586
402.200	32618
402.300	32754
402.400	32740
402.500	32739
402.600	32521
402.700	32769
402.800	32624
402.900	32815
403.000	32447
403.100	32608
403.200	32617
403.300	32430
403.400	32752
403.500	32614
403.600	32587
403.700	32815
403.800	32905
403.900	32562
404.000	32648
404.100	32503
404.200	32180
404.300	32463
404.400	32714
404.500	32443
404.600	32562
404.700	32474
404.800	32639
404.900	32529
405.000	32439
405.100	32707
405.200	32519
405.300	33076
405.400	32760
405.500	32822
405.600	32598
405.700	32907
405.800	32807
405.900	32489
406.000	32747
406.100	32708
406.200	32726
406.300	32580
406.400	32652
406.500	32613
406.600	32683
406.700	32565
406.800	32611
406.900	32612
407.000	32946
407.100	32745
407.200	32963
407.300	32717
407.400	32807
407.500	32981
407.600	32630
407.700	32965
407.800	32613
407.900	32849
408.000	32780
408.100	32592
408.200	32946
408.300	32500
408.400	32921
408.500	32698
408.600	32901
408.700	33210
408.800	32837
408.900	32918
409.000	32732
409.100	32829
409.200	32704
409.300	32816
409.400	32554
409.500	32505
409.600	32971
409.700	32975
409.800	32872
409.900	33079
410.000	32991
Region	Enabled	DataFlag	Start	End	Step	Sweeps	Dwell	Mode	CAE/CRR	Mag	Divide by Ten	Notes	Function	Line-Style	Point-Style	Sweeps-Acquired
5	true	Original	520.000	550.000	0.100	3	0.200	CAE	20.00	High	false	O1s-Sb3d	7 Channel Acquisition			3
Layer	Enabled	DataFlag	Notes	Formula	Line-Style	Point-Style
1	True		Ch(1)+Ch(2)+Ch(3)+Ch(4)+Ch(5)+Ch(6)+Ch(7)		
Energy	Counts
520.000	10765
520.100	10724
520.200	10715
520.300	10757
520.400	10879
520.500	10763
520.600	10762
520.700	10874
520.800	10589
520.900	10745
521.000	10804
521.100	10749
521.200	10951
521.300	10943
521.400	10994
521.500	10887
521.600	10836
521.700	10798
521.800	10696
521.900	10807
522.000	10791
522.100	10885
522.200	10857
522.300	10721
522.400	10859
522.500	10879
522.600	10817
522.700	10962
522.800	10957
522.900	10990
523.000	11221
523.100	11003
523.200	11051
523.300	11045
523.400	11106
523.500	10990
523.600	11027
523.700	10764
523.800	10846
523.900	10970
524.000	11014
524.100	11018
524.200	10960
524.300	11150
524.400	11082
524.500	11051
524.600	10987
524.700	10813
524.800	10924
524.900	10929
525.000	10943
525.100	10662
525.200	10873
525.300	10814
525.400	10822
525.500	10788
525.600	10876
525.700	10805
525.800	10794
525.900	10834
526.000	10740
526.100	10875
526.200	10658
526.300	10679
526.400	10714
526.500	10876
526.600	10944
526.700	10908
526.800	10769
526.900	10794
527.000	10843
527.100	10755
527.200	10767
527.300	10845
527.400	10807
527.500	10741
527.600	10927
527.700	11098
527.800	10750
527.900	10786
528.000	10981
528.100	10850
528.200	10677
528.300	10832
528.400	10825
528.500	10785
528.600	10907
528.700	10819
528.800	10814
528.900	10853
529.000	10928
529.100	10925
529.200	10906
529.300	10957
529.400	10868
529.500	11003
529.600	10894
529.700	10877
529.800	11042
529.900	10846
530.000	10854
530.100	10856
530.200	10846
530.300	11076
530.400	11097
530.500	11113
530.600	11031
530.700	11214
530.800	11523
530.900	11701
531.000	11755
531.100	11875
531.200	12059
531.300	12300
531.400	12385
531.500	12598
531.600	12570
531.700	12655
531.800	12831
531.900	12690
532.000	12874
532.100	13007
532.200	12892
532.300	13180
532.400	13075
532.500	13242
532.600	13344
532.700	13645
532.800	13615
532.900	13352
533.000	13474
533.100	13255
533.200	13022
533.300	12797
533.400	12741
533.500	12375
533.600	12277
533.700	12059
533.800	11723
533.900	11725
534.000	11612
534.100	11545
534.200	11533
534.300	11656
534.400	11596
534.500	11279
534.600	11278
534.700	11241
534.800	11126
534.900	11013
535.000	11101
535.100	11235
535.200	11056
535.300	10904
535.400	11050
535.500	11056
535.600	11211
535.700	11054
535.800	11093
535.900	10963
536.000	11044
536.100	11071
536.200	11100
536.300	10992
536.400	11205
536.500	11143
536.600	11092
536.700	11180
536.800	11043
536.900	11070
537.000	11119
537.100	11024
537.200	11140
537.300	11164
537.400	11149
537.500	11196
537.600	11031
537.700	11163
537.800	10989
537.900	11015
538.000	11220
538.100	11267
538.200	11281
538.300	11080
538.400	11034
538.500	11212
538.600	11031
538.700	11163
538.800	11341
538.900	11191
539.000	10918
539.100	11093
539.200	11058
539.300	11169
539.400	11281
539.500	11000
539.600	10914
539.700	10963
539.800	11065
539.900	10927
540.000	10951
540.100	11155
540.200	11302
540.300	11282
540.400	11190
540.500	10998
540.600	10992
540.700	11079
540.800	11026
540.900	11019
541.000	11090
541.100	11124
541.200	11089
541.300	11054
541.400	10996
541.500	11039
541.600	11060
541.700	11030
541.800	11067
541.900	11141
542.000	11034
542.100	10980
542.200	11036
542.300	11030
542.400	11151
542.500	11224
542.600	11061
542.700	11278
542.800	11074
542.900	11087
543.000	11136
543.100	11065
543.200	11140
543.300	11121
543.400	11127
543.500	11286
543.600	11032
543.700	11153
543.800	11251
543.900	11123
544.000	11199
544.100	11165
544.200	11059
544.300	11202
544.400	11192
544.500	11026
544.600	11169
544.700	11178
544.800	11315
544.900	11322
545.000	11097
545.100	11103
545.200	11217
545.300	11216
545.400	11261
545.500	11195
545.600	11186
545.700	11315
545.800	11201
545.900	11152
546.000	11156
546.100	11207
546.200	11202
546.300	11336
546.400	11125
546.500	11156
546.600	11333
546.700	11297
546.800	11300
546.900	11228
547.000	11399
547.100	11298
547.200	11170
547.300	11249
547.400	11298
547.500	11305
547.600	11478
547.700	11394
547.800	11315
547.900	11341
548.000	11245
548.100	11244
548.200	11205
548.300	11314
548.400	11216
548.500	11253
548.600	11171
548.700	11292
548.800	11284
548.900	11224
549.000	11249
549.100	11276
549.200	11212
549.300	11486
549.400	11360
549.500	11189
549.600	11277
549.700	11258
549.800	11245
549.900	11329
550.000	11263
Region	Enabled	DataFlag	Start	End	Step	Sweeps	Dwell	Mode	CAE/CRR	Mag	Divide by Ten	Notes	Function	Line-Style	Point-Style	Sweeps-Acquired
6	true	Original	280.000	300.000	0.100	3	0.200	CAE	20.00	High	false	C1s	7 Channel Acquisition			3
Layer	Enabled	DataFlag	Notes	Formula	Line-Style	Point-Style
1	True		Ch(1)+Ch(2)+Ch(3)+Ch(4)+Ch(5)+Ch(6)+Ch(7)		
Energy	Counts
280.000	7024
280.100	6892
280.200	7009
280.300	7006
280.400	7068
280.500	6926
280.600	6952
280.700	6973
280.800	7001
280.900	6877
281.000	6864
281.100	6913
281.200	7033
281.300	6967
281.400	6873
281.500	6959
281.600	7017
281.700	6913
281.800	7085
281.900	6892
282.000	7017
282.100	7069
282.200	7112
282.300	7086
282.400	7047
282.500	7158
282.600	7115
282.700	7211
282.800	7319
282.900	7206
283.000	7528
283.100	7559
283.200	7527
283.300	7849
283.400	7909
283.500	8141
283.600	8521
283.700	8688
283.800	9297
283.900	10121
284.000	11043
284.100	12138
284.200	13490
284.300	15336
284.400	16900
284.500	19141
284.600	21058
284.700	22881
284.800	24170
284.900	24841
285.000	25202
285.100	24843
285.200	23993
285.300	22541
285.400	21262
285.500	19577
285.600	18059
285.700	16609
285.800	15276
285.900	14166
286.000	13194
286.100	12200
286.200	11651
286.300	11172
286.400	10791
286.500	10139
286.600	9668
286.700	9489
286.800	9271
286.900	8878
287.000	8809
287.100	8715
287.200	8538
287.300	8492
287.400	8172
287.500	8150
287.600	8396
287.700	8306
287.800	8344
287.900	8336
288.000	8471
288.100	8467
288.200	8415
288.300	8437
288.400	8613
288.500	8398
288.600	8497
288.700	8240
288.800	8342
288.900	8254
289.000	8284
289.100	8351
289.200	8300
289.300	8311
289.400	8210
289.500	8097
289.600	8217
289.700	8004
289.800	8144
289.900	8034
290.000	8057
290.100	7996
290.200	7918
290.300	7966
290.400	8060
290.500	7942
290.600	7943
290.700	7942
290.800	7833
290.900	7794
291.000	7891
291.100	7826
291.200	7785
291.300	7842
291.400	8054
291.500	7820
291.600	7702
291.700	7881
291.800	7804
291.900	7789
292.000	7722
292.100	7835
292.200	7800
292.300	7736
292.400	7767
292.500	7769
292.600	7768
292.700	7837
292.800	7818
292.900	7936
293.000	7845
293.100	8000
293.200	7862
293.300	7741
293.400	7826
293.500	7693
293.600	7711
293.700	7741
293.800	7858
293.900	7971
294.000	7926
294.100	7932
294.200	7908
294.300	7864
294.400	7766
294.500	7792
294.600	7760
294.700	7982
294.800	7889
294.900	7906
295.000	7946
295.100	7842
295.200	7804
295.300	7975
295.400	8053
295.500	8008
295.600	7960
295.700	8005
295.800	8081
295.900	7915
296.000	7903
296.100	7969
296.200	7971
296.300	8117
296.400	8024
296.500	8028
296.600	8070
296.700	8201
296.800	8044
296.900	8143
297.000	7985
297.100	8113
297.200	8084
297.300	8068
297.400	8178
297.500	8088
297.600	8085
297.700	8219
297.800	8164
297.900	8177
298.000	8180
298.100	8093
298.200	8233
298.300	8280
298.400	8180
298.500	8365
298.600	8254
298.700	8376
298.800	8339
298.900	8330
299.000	8315
299.100	8348
299.200	8425
299.300	8376
299.400	8493
299.500	8367
299.600	8411
299.700	8358
299.800	8505
299.900	8666
300.000	8524
Region	Enabled	DataFlag	Start	End	Step	Sweeps	Dwell	Mode	CAE/CRR	Mag	Divide by Ten	Notes	Function	Line-Style	Point-Style	Sweeps-Acquired
7	true	Original	0.0	1100.0	0.3	1	0.100	CAE	50.00	High	false	WIDE	7 Channel Acquisition			1
Layer	Enabled	DataFlag	Notes	Formula	Line-Style	Point-Style
1	True		Ch(1)+Ch(2)+Ch(3)+Ch(4)+Ch(5)+Ch(6)+Ch(7)		
Energy	Counts
0.0	1403
0.3	1434
0.6	1366
0.9	1405
1.2	1420
1.5	1402
1.8	1368
2.1	1389
2.4	1374
2.7	1415
3.0	1462
3.3	1435
3.6	1429
3.9	1474
4.2	1441
4.5	1460
4.8	1490
5.1	1540
5.4	1539
5.7	1489
6.0	1503
6.3	1502
6.6	1473
6.9	1453
7.2	1519
7.5	1559
7.8	1469
8.1	1465
8.4	1484
8.7	1399
9.0	1485
9.3	1582
9.6	1559
9.9	1466
10.2	1460
10.5	1485
10.8	1491
11.1	1478
11.4	1529
11.7	1609
12.0	1555
12.3	1537
12.6	1514
12.9	1478
13.2	1508
13.5	1496
13.8	1520
14.1	1489
14.4	1532
14.7	1574
15.0	1577
15.3	1546
15.6	1599
15.9	1588
16.2	1565
16.5	1569
16.8	1549
17.1	1542
17.4	1577
17.7	1549
18.0	1622
18.3	1593
18.6	1636
18.9	1589
19.2	1577
19.5	1603
19.8	1572
20.1	1579
20.4	1543
20.7	1545
21.0	1562
21.3	1508
21.6	1559
21.9	1519
22.2	1511
22.5	1543
22.8	1547
23.1	1604
23.4	1560
23.7	1553
24.0	1548
24.3	1530
24.6	1550
24.9	1542
25.2	1557
25.5	1505
25.8	1560
26.1	1565
26.4	1642
26.7	1607
27.0	1548
27.3	1533
27.6	1605
27.9	1590
28.2	1566
28.5	1619
28.8	1532
29.1	1575
29.4	1588
29.7	1581
30.0	1618
30.3	1593
30.6	1586
30.9	1521
31.2	1500
31.5	1546
31.8	1597
32.1	1516
32.4	1544
32.7	1515
33.0	1565
33.3	1562
33.6	1587
33.9	1575
34.2	1561
34.5	1514
34.8	1512
35.1	1546
35.4	1581
35.7	1548
36.0	1514
36.3	1585
36.6	1558
36.9	1615
37.2	1558
37.5	1628
37.8	1570
38.1	1542
38.4	1542
38.7	1570
39.0	1565
39.3	1583
39.6	1622
39.9	1610
40.2	1632
40.5	1599
40.8	1630
41.1	1554
41.4	1582
41.7	1612
42.0	1556
42.3	1596
42.6	1634
42.9	1609
43.2	1607
43.5	1596
43.8	1549
44.1	1571
44.4	1558
44.7	1599
45.0	1584
45.3	1526
45.6	1588
45.9	1549
46.2	1592
46.5	1614
46.8	1623
47.1	1616
47.4	1566
47.7	1621
48.0	1588
48.3	1669
48.6	1631
48.9	1535
49.2	1563
49.5	1560
49.8	1595
50.1	1660
50.4	1642
50.7	1673
51.0	1719
51.3	1773
51.6	1764
51.9	1739
52.2	1756
52.5	1808
52.8	1718
53.1	1710
53.4	1632
53.7	1582
54.0	1642
54.3	1593
54.6	1659
54.9	1575
55.2	1665
55.5	1581
55.8	1612
56.1	1638
56.4	1629
56.7	1611
57.0	1615
57.3	1615
57.6	1605
57.9	1607
58.2	1592
58.5	1633
58.8	1632
59.1	1603
59.4	1633
59.7	1635
60.0	1619
60.3	1617
60.6	1589
60.9	1639
61.2	1683
61.5	1651
61.8	1681
62.1	1710
62.4	1642
62.7	1661
63.0	1674
63.3	1672
63.6	1672
63.9	1677
64.2	1702
64.5	1660
64.8	1671
65.1	1635
65.4	1631
65.7	1647
66.0	1672
66.3	1612
66.6	1635
66.9	1639
67.2	1670
67.5	1654
67.8	1626
68.1	1665
68.4	1672
68.7	1625
69.0	1715
69.3	1694
69.6	1644
69.9	1668
70.2	1692
70.5	1699
70.8	1639
71.1	1704
71.4	1657
71.7	1678
72.0	1702
72.3	1728
72.6	1625
72.9	1691
73.2	1757
73.5	1711
73.8	1749
74.1	1714
74.4	1712
74.7	1733
75.0	1664
75.3	1743
75.6	1746
75.9	1695
76.2	1731
76.5	1718
76.8	1727
77.1	1795
77.4	1739
77.7	1708
78.0	1793
78.3	1744
78.6	1704
78.9	1694
79.2	1717
79.5	1745
79.8	1662
80.1	1675
80.4	1656
80.7	1741
81.0	1783
81.3	1738
81.6	1746
81.9	1737
82.2	1682
82.5	1724
82.8	1745
83.1	1770
83.4	1882
83.7	1881
84.0	1866
84.3	1861
84.6	1891
84.9	1858
85.2	1808
85.5	1806
85.8	1757
86.1	1762
86.4	1804
86.7	1730
87.0	1740
87.3	1827
87.6	1869
87.9	1853
88.2	1862
88.5	1823
88.8	1844
89.1	1812
89.4	1752
89.7	1713
90.0	1766
90.3	1731
90.6	1752
90.9	1831
91.2	1846
91.5	1689
91.8	1746
92.1	1774
92.4	1766
92.7	1757
93.0	1793
93.3	1838
93.6	1820
93.9	1817
94.2	1878
94.5	1837
94.8	1803
95.1	1833
95.4	1829
95.7	1840
96.0	1800
96.3	1843
96.6	1801
96.9	1835
97.2	1889
97.5	1856
97.8	1800
98.1	1857
98.4	1837
98.7	1888
99.0	1922
99.3	1859
99.6	1882
99.9	1836
100.2	1875
100.5	1917
100.8	1872
101.1	1829
101.4	1904
101.7	1936
102.0	1875
102.3	1949
102.6	1896
102.9	1921
103.2	1862
103.5	1925
103.8	1972
104.1	1992
104.4	1911
104.7	1946
105.0	1890
105.3	1862
105.6	1937
105.9	1959
106.2	1929
106.5	1983
106.8	1926
107.1	2003
107.4	2023
107.7	2022
108.0	1991
108.3	1958
108.6	1929
108.9	1930
109.2	2030
109.5	2016
109.8	1987
110.1	1945
110.4	2057
110.7	1991
111.0	2007
111.3	2024
111.6	2032
111.9	2046
112.2	2060
112.5	2110
112.8	2107
113.1	2057
113.4	2007
113.7	2085
114.0	2112
114.3	2072
114.6	2017
114.9	2007
115.2	2059
115.5	2069
115.8	2087
116.1	2078
116.4	1974
116.7	2087
117.0	2109
117.3	2121
117.6	2125
117.9	2130
118.2	2174
118.5	2129
118.8	2043
119.1	2033
119.4	2103
119.7	2114
120.0	2126
120.3	2084
120.6	2110
120.9	2202
121.2	2103
121.5	2165
121.8	2143
122.1	2060
122.4	2128
122.7	2140
123.0	2255
123.3	2119
123.6	2142
123.9	2152
124.2	2123
124.5	2142
124.8	2171
125.1	2209
125.4	2213
125.7	2245
126.0	2270
126.3	2190
126.6	2217
126.9	2215
127.2	2162
127.5	2227
127.8	2239
128.1	2181
128.4	2248
128.7	2322
129.0	2252
129.3	2250
129.6	2285
129.9	2304
130.2	2240
130.5	2314
130.8	2303
131.1	2336
131.4	2298
131.7	2395
132.0	2271
132.3	2318
132.6	2286
132.9	2263
133.2	2270
133.5	2344
133.8	2290
134.1	2343
134.4	2350
134.7	2320
135.0	2283
135.3	2308
135.6	2395
135.9	2315
136.2	2363
136.5	2432
136.8	2389
137.1	2378
137.4	2365
137.7	2397
138.0	2347
138.3	2368
138.6	2349
138.9	2383
139.2	2390
139.5	2431
139.8	2348
140.1	2399
140.4	2449
140.7	2462
141.0	2453
141.3	2411
141.6	2417
141.9	2428
142.2	2498
142.5	2464
142.8	2469
143.1	2548
143.4	2463
143.7	2492
144.0	2612
144.3	2523
144.6	2555
144.9	2540
145.2	2488
145.5	2506
145.8	2592
146.1	2597
146.4	2609
146.7	2519
147.0	2554
147.3	2639
147.6	2620
147.9	2603
148.2	2577
148.5	2619
148.8	2603
149.1	2533
149.4	2622
149.7	2594
150.0	2606
150.3	2643
150.6	2636
150.9	2642
151.2	2535
151.5	2616
151.8	2656
152.1	2614
152.4	2653
152.7	2688
153.0	2742
153.3	2693
153.6	2730
153.9	2707
154.2	2713
154.5	2816
154.8	2794
155.1	2797
155.4	2790
155.7	2848
156.0	2799
156.3	2814
156.6	2849
156.9	2855
157.2	2830
157.5	2795
157.8	2783
158.1	2900
158.4	2802
158.7	2801
159.0	2884
159.3	2875
159.6	2830
159.9	2817
160.2	2879
160.5	2865
160.8	2742
161.1	2839
161.4	2869
161.7	2892
162.0	2938
162.3	2950
162.6	3024
162.9	3095
163.2	3208
163.5	3482
163.8	3706
164.1	3846
164.4	3917
164.7	3818
165.0	3841
165.3	3763
165.6	3608
165.9	3415
166.2	3336
166.5	3246
166.8	3059
167.1	3114
167.4	3077
167.7	3007
168.0	3102
168.3	3120
168.6	3186
168.9	3101
169.2	3126
169.5	3097
169.8	2998
170.1	3093
170.4	3163
170.7	3029
171.0	3082
171.3	3099
171.6	3131
171.9	3168
172.2	3093
172.5	3104
172.8	3111
173.1	3144
173.4	3213
173.7	3101
174.0	3062
174.3	3142
174.6	3145
174.9	3159
175.2	3207
175.5	3215
175.8	3209
176.1	3307
176.4	3232
176.7	3238
177.0	3256
177.3	3258
177.6	3275
177.9	3312
178.2	3300
178.5	3266
178.8	3267
179.1	3307
179.4	3331
179.7	3358
180.0	3352
180.3	3386
180.6	3373
180.9	3309
181.2	3409
181.5	3436
181.8	3427
182.1	3388
182.4	3458
182.7	3413
183.0	3475
183.3	3526
183.6	3464
183.9	3384
184.2	3471
184.5	3550
184.8	3556
185.1	3521
185.4	3503
185.7	3561
186.0	3533
186.3	3543
186.6	3589
186.9	3587
187.2	3572
187.5	3574
187.8	3567
188.1	3445
188.4	3547
188.7	3575
189.0	3603
189.3	3609
189.6	3586
189.9	3607
190.2	3636
190.5	3620
190.8	3580
191.1	3678
191.4	3662
191.7	3668
192.0	3566
192.3	3670
192.6	3727
192.9	3585
193.2	3594
193.5	3670
193.8	3683
194.1	3579
194.4	3717
194.7	3804
195.0	3727
195.3	3649
195.6	3609
195.9	3685
196.2	3750
196.5	3790
196.8	3639
197.1	3714
197.4	3755
197.7	3856
198.0	3815
198.3	3787
198.6	3824
198.9	3727
199.2	3727
199.5	3820
199.8	3859
200.1	3779
200.4	3780
200.7	3809
201.0	3867
201.3	3801
201.6	3747
201.9	3838
202.2	3864
202.5	3816
202.8	3828
203.1	3920
203.4	3908
203.7	3884
204.0	3881
204.3	3942
204.6	3896
204.9	4030
205.2	4027
205.5	3941
205.8	3904
206.1	3933
206.4	3934
206.7	3924
207.0	3928
207.3	4029
207.6	4014
207.9	3940
208.2	3970
208.5	3869
208.8	4022
209.1	4030
209.4	4047
209.7	4131
210.0	3972
210.3	3967
210.6	4042
210.9	4012
211.2	4113
211.5	3992
211.8	4019
212.1	4031
212.4	4117
212.7	4081
213.0	4153
213.3	4079
213.6	4088
213.9	4157
214.2	4079
214.5	4108
214.8	4146
215.1	4203
215.4	4143
215.7	4117
216.0	4132
216.3	4253
216.6	4176
216.9	4230
217.2	4311
217.5	4240
217.8	4201
218.1	4325
218.4	4345
218.7	4208
219.0	4248
219.3	4309
219.6	4237
219.9	4330
220.2	4297
220.5	4373
220.8	4251
221.1	4286
221.4	4280
221.7	4265
222.0	4309
222.3	4384
222.6	4354
222.9	4301
223.2	4192
223.5	4201
223.8	4259
224.1	4343
224.4	4389
224.7	4452
225.0	4352
225.3	4365
225.6	4412
225.9	4407
226.2	4460
226.5	4448
226.8	4598
227.1	4543
227.4	4609
227.7	4768
228.0	4863
228.3	5030
228.6	4987
228.9	4863
229.2	4863
229.5	4808
229.8	4770
230.1	4750
230.4	4650
230.7	4652
231.0	4602
231.3	4551
231.6	4547
231.9	4465
232.2	4624
232.5	4548
232.8	4631
233.1	4574
233.4	4541
233.7	4616
234.0	4590
234.3	4627
234.6	4616
234.9	4601
235.2	4689
235.5	4641
235.8	4697
236.1	4669
236.4	4830
236.7	4686
237.0	4601
237.3	4633
237.6	4693
237.9	4771
238.2	4723
238.5	4677
238.8	4637
239.1	4884
239.4	4732
239.7	4779
240.0	4756
240.3	4667
240.6	4616
240.9	4675
241.2	4717
241.5	4851
241.8	4769
242.1	4709
242.4	4752
242.7	4827
243.0	4769
243.3	4717
243.6	4769
243.9	4828
244.2	4789
244.5	4836
244.8	4797
245.1	4851
245.4	4903
245.7	4810
246.0	4729
246.3	4807
246.6	4893
246.9	4833
247.2	4860
247.5	4926
247.8	4922
248.1	4870
248.4	4952
248.7	4980
249.0	4925
249.3	5077
249.6	5055
249.9	4929
250.2	4901
250.5	4948
250.8	4898
251.1	5008
251.4	4929
251.7	5014
252.0	5036
252.3	4984
252.6	5073
252.9	4991
253.2	5013
253.5	4994
253.8	4998
254.1	5004
254.4	4976
254.7	5066
255.0	5025
255.3	5121
255.6	5104
255.9	5121
256.2	5086
256.5	5051
256.8	5084
257.1	4985
257.4	4985
257.7	5137
258.0	5182
258.3	5008
258.6	5069
258.9	5123
259.2	5080
259.5	5043
259.8	5136
260.1	5070
260.4	5117
260.7	5091
261.0	5084
261.3	5087
261.6	5202
261.9	5182
262.2	5120
262.5	5135
262.8	5107
263.1	5208
263.4	5060
263.7	5193
264.0	5268
264.3	5258
264.6	5230
264.9	5173
265.2	5207
265.5	5149
265.8	5258
266.1	5195
266.4	5340
266.7	5339
267.0	5373
267.3	5442
267.6	5363
267.9	5348
268.2	5353
268.5	5328
268.8	5326
269.1	5306
269.4	5333
269.7	5319
270.0	5309
270.3	5360
270.6	5411
270.9	5332
271.2	5288
271.5	5388
271.8	5377
272.1	5427
272.4	5406
272.7	5444
273.0	5383
273.3	5513
273.6	5558
273.9	5737
274.2	5864
274.5	5901
274.8	6125
275.1	6182
275.4	6230
275.7	6258
276.0	6410
276.3	6566
276.6	6447
276.9	6463
277.2	6393
277.5	6122
277.8	5959
278.1	5909
278.4	5918
278.7	5797
279.0	5720
279.3	5725
279.6	5685
279.9	5765
280.2	5860
280.5	5932
280.8	5849
281.1	5925
281.4	5797
281.7	5781
282.0	5942
282.3	6001
282.6	6038
282.9	6061
283.2	6389
283.5	7141
283.8	8673
284.1	10869
284.4	13968
284.7	16245
285.0	17786
285.3	17907
285.6	16022
285.9	13681
286.2	11178
286.5	9501
286.8	8407
287.1	7588
287.4	7360
287.7	7124
288.0	7153
288.3	7062
288.6	7020
288.9	7024
289.2	7008
289.5	6873
289.8	6845
290.1	6715
290.4	6636
290.7	6733
291.0	6631
291.3	6727
291.6	6709
291.9	6592
292.2	6622
292.5	6852
292.8	6744
293.1	6498
293.4	6697
293.7	6601
294.0	6535
294.3	6672
294.6	6719
294.9	6706
295.2	6591
295.5	6655
295.8	6694
296.1	6601
296.4	6808
296.7	6829
297.0	6863
297.3	6972
297.6	6927
297.9	6871
298.2	6948
298.5	7069
298.8	7015
299.1	7023
299.4	6994
299.7	7106
300.0	7067
300.3	7110
300.6	7252
300.9	7336
301.2	7210
301.5	7275
301.8	7318
302.1	7259
302.4	7278
302.7	7518
303.0	7421
303.3	7580
303.6	7562
303.9	7400
304.2	7542
304.5	7657
304.8	7758
305.1	7610
305.4	7701
305.7	7713
306.0	7612
306.3	7657
306.6	7861
306.9	7808
307.2	7748
307.5	7767
307.8	7767
308.1	7733
308.4	7800
308.7	7768
309.0	7768
309.3	7741
309.6	7891
309.9	7840
310.2	8007
310.5	7923
310.8	7958
311.1	7991
311.4	7926
311.7	7910
312.0	8015
312.3	7840
312.6	7946
312.9	7854
313.2	7792
313.5	7876
313.8	7745
314.1	7877
314.4	8004
314.7	7857
315.0	7926
315.3	7851
315.6	7982
315.9	7976
316.2	7812
316.5	7952
316.8	7752
317.1	7784
317.4	7874
317.7	7805
318.0	7772
318.3	7777
318.6	7701
318.9	7828
319.2	7968
319.5	7876
319.8	7810
320.1	7911
320.4	7854
320.7	7884
321.0	7906
321.3	8102
321.6	7889
321.9	7914
322.2	7824
322.5	7852
322.8	7937
323.1	7886
323.4	7893
323.7	7785
324.0	7828
324.3	7879
324.6	7829
324.9	7989
325.2	8000
325.5	7877
325.8	8037
326.1	7937
326.4	7843
326.7	7796
327.0	8055
327.3	7960
327.6	8014
327.9	7951
328.2	7921
328.5	7845
328.8	7982
329.1	7883
329.4	7953
329.7	8024
330.0	7909
330.3	7868
330.6	8060
330.9	8047
331.2	7957
331.5	8004
331.8	7989
332.1	7921
332.4	7852
332.7	8017
333.0	7918
333.3	7972
333.6	8104
333.9	8061
334.2	8125
334.5	8051
334.8	7960
335.1	8035
335.4	8122
335.7	8084
336.0	8067
336.3	8074
336.6	8106
336.9	8126
337.2	8131
337.5	8011
337.8	8082
338.1	8076
338.4	8055
338.7	8203
339.0	8043
339.3	8036
339.6	8183
339.9	8067
340.2	8088
340.5	8115
340.8	7995
341.1	8054
341.4	8016
341.7	8159
342.0	8163
342.3	8182
342.6	8175
342.9	8175
343.2	8037
343.5	8212
343.8	8150
344.1	8040
344.4	8126
344.7	8236
345.0	8000
345.3	8132
345.6	7981
345.9	8097
346.2	8122
346.5	8146
346.8	7998
347.1	8124
347.4	8134
347.7	8171
348.0	8130
348.3	8175
348.6	8205
348.9	8239
349.2	8135
349.5	8204
349.8	8062
350.1	8099
350.4	8220
350.7	8209
351.0	8148
351.3	8187
351.6	8168
351.9	8274
352.2	8130
352.5	8172
352.8	8210
353.1	8127
353.4	8326
353.7	8258
354.0	8164
354.3	8135
354.6	8134
354.9	8236
355.2	8154
355.5	8233
355.8	8291
356.1	8146
356.4	8275
356.7	8237
357.0	8393
357.3	8347
357.6	8335
357.9	8331
358.2	8249
358.5	8235
358.8	8096
359.1	7927
359.4	8236
359.7	8192
360.0	8263
360.3	8262
360.6	8244
360.9	8226
361.2	8370
361.5	8259
361.8	8298
362.1	8258
362.4	8376
362.7	8300
363.0	8262
363.3	8186
363.6	8361
363.9	8216
364.2	8288
364.5	8275
364.8	8174
365.1	8439
365.4	8295
365.7	8203
366.0	8333
366.3	8309
366.6	8324
366.9	8296
367.2	8248
367.5	8290
367.8	8284
368.1	8315
368.4	8323
368.7	8263
369.0	8274
369.3	8299
369.6	8350
369.9	8330
370.2	8298
370.5	8353
370.8	8256
371.1	8340
371.4	8219
371.7	8370
372.0	8267
372.3	8273
372.6	8385
372.9	8429
373.2	8402
373.5	8305
373.8	8357
374.1	8438
374.4	8332
374.7	8496
375.0	8438
375.3	8293
375.6	8428
375.9	8176
376.2	8327
376.5	8392
376.8	8258
377.1	8282
377.4	8381
377.7	8323
378.0	8245
378.3	8325
378.6	8289
378.9	8464
379.2	8340
379.5	8466
379.8	8512
380.1	8400
380.4	8218
380.7	8371
381.0	8342
381.3	8192
381.6	8497
381.9	8454
382.2	8440
382.5	8363
382.8	8273
383.1	8364
383.4	8435
383.7	8297
384.0	8333
384.3	8555
384.6	8535
384.9	8443
385.2	8398
385.5	8274
385.8	8407
386.1	8472
386.4	8340
386.7	8478
387.0	8640
387.3	8498
387.6	8425
387.9	8516
388.2	8437
388.5	8456
388.8	8413
389.1	8404
389.4	8531
389.7	8588
390.0	8474
390.3	8434
390.6	8397
390.9	8637
391.2	8452
391.5	8457
391.8	8545
392.1	8607
392.4	8518
392.7	8582
393.0	8457
393.3	8605
393.6	8553
393.9	8449
394.2	8453
394.5	8540
394.8	8499
395.1	8627
395.4	8491
395.7	8488
396.0	8387
396.3	8466
396.6	8550
396.9	8452
397.2	8486
397.5	8497
397.8	8414
398.1	8483
398.4	8577
398.7	8678
399.0	8699
399.3	8637
399.6	8821
399.9	8938
400.2	9084
400.5	9063
400.8	8887
401.1	8728
401.4	8758
401.7	8647
402.0	8749
402.3	8696
402.6	8664
402.9	8666
403.2	8678
403.5	8623
403.8	8671
404.1	8593
404.4	8691
404.7	8646
405.0	8669
405.3	8553
405.6	8484
405.9	8669
406.2	8618
406.5	8611
406.8	8556
407.1	8607
407.4	8618
407.7	8512
408.0	8680
408.3	8683
408.6	8620
408.9	8659
409.2	8633
409.5	8592
409.8	8531
410.1	8683
410.4	8637
410.7	8615
411.0	8683
411.3	8657
411.6	8662
411.9	8536
412.2	8641
412.5	8748
412.8	8740
413.1	8822
413.4	8633
413.7	8661
414.0	8648
414.3	8804
414.6	8791
414.9	8860
415.2	8771
415.5	8673
415.8	8793
416.1	8852
416.4	8781
416.7	8818
417.0	8667
417.3	8835
417.6	8793
417.9	8687
418.2	8771
418.5	8724
418.8	8807
419.1	8770
419.4	8801
419.7	8799
420.0	8642
420.3	8785
420.6	8836
420.9	8920
421.2	8877
421.5	8873
421.8	8820
422.1	8894
422.4	8877
422.7	8747
423.0	8928
423.3	8779
423.6	8830
423.9	8938
424.2	8755
424.5	8718
424.8	8648
425.1	8713
425.4	8850
425.7	8855
426.0	8734
426.3	8798
426.6	8711
426.9	8881
427.2	8787
427.5	8812
427.8	8891
428.1	8809
428.4	8890
428.7	8795
429.0	8864
429.3	8871
429.6	8826
429.9	8859
430.2	8812
430.5	8839
430.8	8855
431.1	8892
431.4	8943
431.7	8730
432.0	8824
432.3	8750
432.6	8786
432.9	8828
433.2	8854
433.5	8834
433.8	8908
434.1	8825
434.4	8832
434.7	8970
435.0	8947
435.3	8920
435.6	8764
435.9	8910
436.2	8842
436.5	8788
436.8	8976
437.1	9060
437.4	8873
437.7	8938
438.0	8962
438.3	8845
438.6	8806
438.9	8952
439.2	8905
439.5	9017
439.8	8928
440.1	8881
440.4	9008
440.7	8895
441.0	8949
441.3	8951
441.6	8988
441.9	8876
442.2	8954
442.5	8863
442.8	8995
443.1	8980
443.4	8877
443.7	8884
444.0	8879
444.3	8959
444.6	8886
444.9	8916
445.2	8897
445.5	8940
445.8	8840
446.1	9008
446.4	8941
446.7	9072
447.0	8937
447.3	8965
447.6	9075
447.9	9004
448.2	9085
448.5	9081
448.8	9088
449.1	8879
449.4	9023
449.7	9185
450.0	8969
450.3	9080
450.6	9019
450.9	8999
451.2	8947
451.5	9060
451.8	8997
452.1	9063
452.4	9105
452.7	9031
453.0	9112
453.3	8996
453.6	9253
453.9	9116
454.2	8987
454.5	9121
454.8	9077
455.1	9097
455.4	9092
455.7	9042
456.0	8986
456.3	9100
456.6	9012
456.9	9017
457.2	9094
457.5	9165
457.8	9128
458.1	9211
458.4	9283
458.7	9113
459.0	9147
459.3	9197
459.6	9122
459.9	9108
460.2	9220
460.5	9118
460.8	9164
461.1	9165
461.4	9209
461.7	9256
462.0	9234
462.3	9092
462.6	9188
462.9	9246
463.2	9097
463.5	9079
463.8	9152
464.1	9269
464.4	9074
464.7	9087
465.0	9160
465.3	9169
465.6	9176
465.9	9185
466.2	9324
466.5	9072
466.8	9300
467.1	9232
467.4	9161
467.7	9139
468.0	9072
468.3	9164
468.6	9146
468.9	9223
469.2	9294
469.5	9309
469.8	9184
470.1	9223
470.4	9223
470.7	9100
471.0	9139
471.3	9198
471.6	9242
471.9	9197
472.2	9209
472.5	9312
472.8	9330
473.1	9328
473.4	9417
473.7	9204
474.0	9324
474.3	9241
474.6	9194
474.9	9182
475.2	9264
475.5	9258
475.8	9231
476.1	9242
476.4	9276
476.7	9326
477.0	9332
477.3	9360
477.6	9281
477.9	9318
478.2	9351
478.5	9262
478.8	9180
479.1	9296
479.4	9318
479.7	9276
480.0	9311
480.3	9280
480.6	9328
480.9	9326
481.2	9361
481.5	9292
481.8	9310
482.1	9148
482.4	9459
482.7	9278
483.0	9403
483.3	9393
483.6	9350
483.9	9392
484.2	9460
484.5	9400
484.8	9305
485.1	9360
485.4	9445
485.7	9497
486.0	9284
486.3	9542
486.6	9505
486.9	9553
487.2	9568
487.5	9523
487.8	9376
488.1	9391
488.4	9419
488.7	9492
489.0	9456
489.3	9524
489.6	9468
489.9	9410
490.2	9391
490.5	9258
490.8	9370
491.1	9577
491.4	9375
491.7	9543
492.0	9485
492.3	9474
492.6	9609
492.9	9555
493.2	9399
493.5	9404
493.8	9510
494.1	9573
494.4	9594
494.7	9485
495.0	9648
495.3	9628
495.6	9671
495.9	9403
496.2	9580
496.5	9460
496.8	9563
497.1	9615
497.4	9568
497.7	9586
498.0	9498
498.3	9386
498.6	9516
498.9	9397
499.2	9415
499.5	9532
499.8	9641
500.1	9622
500.4	9514
500.7	9569
501.0	9549
501.3	9637
501.6	9633
501.9	9483
502.2	9499
502.5	9411
502.8	9534
503.1	9522
503.4	9473
503.7	9575
504.0	9637
504.3	9533
504.6	9721
504.9	9548
505.2	9369
505.5	9741
505.8	9591
506.1	9569
506.4	9524
506.7	9462
507.0	9706
507.3	9468
507.6	9431
507.9	9563
508.2	9518
508.5	9526
508.8	9541
509.1	9720
509.4	9674
509.7	9588
510.0	9630
510.3	9508
510.6	9810
510.9	9664
511.2	9685
511.5	9761
511.8	9664
512.1	9669
512.4	9622
512.7	9686
513.0	9497
513.3	9589
513.6	9622
513.9	9622
514.2	9684
514.5	9776
514.8	9830
515.1	9663
515.4	9855
515.7	9718
516.0	9797
516.3	9832
516.6	9610
516.9	9650
517.2	9674
517.5	9606
517.8	9636
518.1	9638
518.4	9688
518.7	9699
519.0	9765
519.3	9840
519.6	9749
519.9	9796
520.2	9564
520.5	9673
520.8	9684
521.1	9740
521.4	9948
521.7	10018
522.0	9919
522.3	9929
522.6	9960
522.9	10061
523.2	10129
523.5	9974
523.8	9936
524.1	9807
524.4	10047
524.7	9950
525.0	9855
525.3	9875
525.6	9976
525.9	9990
526.2	9899
526.5	9997
526.8	9873
527.1	9812
527.4	9775
527.7	9867
528.0	9733
528.3	9671
528.6	9865
528.9	9941
529.2	9899
529.5	9793
529.8	10008
530.1	9958
530.4	10228
530.7	10474
531.0	10665
531.3	10923
531.6	11433
531.9	11827
532.2	11922
532.5	12031
532.8	12076
533.1	12008
533.4	11565
533.7	11319
534.0	10946
534.3	10587
534.6	10541
534.9	10332
535.2	10197
535.5	10140
535.8	10080
536.1	10116
536.4	10154
536.7	10173
537.0	10080
537.3	10098
537.6	10189
537.9	10042
538.2	10190
538.5	10113
538.8	10141
539.1	10029
539.4	10046
539.7	10140
540.0	10292
540.3	10188
540.6	10196
540.9	10207
541.2	10092
541.5	10188
541.8	10208
542.1	10103
542.4	10273
542.7	10409
543.0	10204
543.3	10204
543.6	10226
543.9	10036
544.2	10206
544.5	10287
544.8	10246
545.1	10284
545.4	10286
545.7	10243
546.0	10379
546.3	10354
546.6	10305
546.9	10234
547.2	10232
547.5	10364
547.8	10232
548.1	10217
548.4	10304
548.7	10319
549.0	10471
549.3	10480
549.6	10523
549.9	10329
550.2	10356
550.5	10428
550.8	10517
551.1	10322
551.4	10430
551.7	10378
552.0	10457
552.3	10417
552.6	10419
552.9	10417
553.2	10460
553.5	10544
553.8	10381
554.1	10418
554.4	10589
554.7	10475
555.0	10459
555.3	10494
555.6	10327
555.9	10586
556.2	10460
556.5	10532
556.8	10504
557.1	10658
557.4	10565
557.7	10586
558.0	10545
558.3	10532
558.6	10522
558.9	10287
559.2	10477
559.5	10455
559.8	10498
560.1	10472
560.4	10475
560.7	10483
561.0	10561
561.3	10439
561.6	10398
561.9	10563
562.2	10271
562.5	10341
562.8	10493
563.1	10460
563.4	10432
563.7	10476
564.0	10407
564.3	10528
564.6	10396
564.9	10466
565.2	10644
565.5	10384
565.8	10501
566.1	10466
566.4	10289
566.7	10428
567.0	10451
567.3	10500
567.6	10505
567.9	10466
568.2	10514
568.5	10538
568.8	10461
569.1	10645
569.4	10597
569.7	10491
570.0	10290
570.3	10431
570.6	10603
570.9	10456
571.2	10524
571.5	10594
571.8	10535
572.1	10439
572.4	10492
572.7	10594
573.0	10625
573.3	10496
573.6	10594
573.9	10593
574.2	10629
574.5	10556
574.8	10590
575.1	10605
575.4	10606
575.7	10524
576.0	10313
576.3	10615
576.6	10762
576.9	10557
577.2	10577
577.5	10636
577.8	10658
578.1	10751
578.4	10657
578.7	10565
579.0	10517
579.3	10559
579.6	10731
579.9	10542
580.2	10784
580.5	10536
580.8	10798
581.1	10703
581.4	10694
581.7	10581
582.0	10715
582.3	10667
582.6	10719
582.9	10710
583.2	10755
583.5	10805
583.8	10697
584.1	10755
584.4	10780
584.7	10848
585.0	10718
585.3	10731
585.6	10782
585.9	10856
586.2	10649
586.5	10861
586.8	10733
587.1	10782
587.4	10740
587.7	10754
588.0	10695
588.3	10755
588.6	10717
588.9	10694
589.2	10886
589.5	10717
589.8	10703
590.1	10755
590.4	10741
590.7	11020
591.0	10697
591.3	10665
591.6	10856
591.9	10749
592.2	10596
592.5	10769
592.8	10681
593.1	10819
593.4	10803
593.7	10725
594.0	10685
594.3	10824
594.6	10676
594.9	10763
595.2	10695
595.5	10604
595.8	10675
596.1	10649
596.4	10621
596.7	10807
597.0	10898
597.3	10827
597.6	10796
597.9	10773
598.2	10712
598.5	10750
598.8	10890
599.1	10793
599.4	10881
599.7	10887
600.0	10729
600.3	10828
600.6	10845
600.9	10667
601.2	10750
601.5	10773
601.8	10985
602.1	10963
602.4	10916
602.7	10731
603.0	10869
603.3	10845
603.6	10824
603.9	10712
604.2	10797
604.5	10879
604.8	10778
605.1	10922
605.4	10903
605.7	11018
606.0	10900
606.3	10992
606.6	10949
606.9	10913
607.2	10758
607.5	10868
607.8	10783
608.1	10934
608.4	11001
608.7	11090
609.0	10890
609.3	10925
609.6	10686
609.9	10705
610.2	10950
610.5	10908
610.8	10978
611.1	10797
611.4	10908
611.7	10968
612.0	10956
612.3	10835
612.6	10729
612.9	10852
613.2	10922
613.5	10925
613.8	11022
614.1	10944
614.4	11051
614.7	10779
615.0	10933
615.3	10792
615.6	10970
615.9	10982
616.2	10750
616.5	10880
616.8	10864
617.1	10797
617.4	10968
617.7	10937
618.0	10879
618.3	10912
618.6	10782
618.9	10840
619.2	10822
619.5	10992
619.8	10899
620.1	10902
620.4	10853
620.7	10844
621.0	11007
621.3	10892
621.6	10928
621.9	11012
622.2	10973
622.5	10970
622.8	10748
623.1	11090
623.4	11026
623.7	10840
624.0	11023
624.3	11085
624.6	10978
624.9	10899
625.2	11090
625.5	11017
625.8	10860
626.1	10997
626.4	11105
626.7	10967
627.0	11088
627.3	10949
627.6	10863
627.9	11062
628.2	11079
628.5	11058
628.8	10921
629.1	10919
629.4	10812
629.7	10863
630.0	11114
630.3	10950
630.6	10879
630.9	11023
631.2	11034
631.5	11071
631.8	11210
632.1	11146
632.4	11169
632.7	11093
633.0	11022
633.3	11045
633.6	10910
633.9	11015
634.2	11155
634.5	10836
634.8	11089
635.1	11017
635.4	10894
635.7	11044
636.0	11044
636.3	10915
636.6	11039
636.9	11117
637.2	11115
637.5	10972
637.8	11028
638.1	10928
638.4	11028
638.7	11071
639.0	11185
639.3	11062
639.6	11029
639.9	10958
640.2	10968
640.5	11288
640.8	11182
641.1	10989
641.4	11043
641.7	11043
642.0	10926
642.3	11117
642.6	11155
642.9	11253
643.2	11328
643.5	11201
643.8	11143
644.1	11068
644.4	11176
644.7	11143
645.0	11128
645.3	11131
645.6	11163
645.9	11175
646.2	11134
646.5	11125
646.8	11189
647.1	11049
647.4	11070
647.7	11057
648.0	11233
648.3	11219
648.6	11113
648.9	11142
649.2	11021
649.5	11231
649.8	11209
650.1	10998
650.4	11012
650.7	10954
651.0	11083
651.3	11100
651.6	11187
651.9	11249
652.2	11273
652.5	11236
652.8	11164
653.1	11191
653.4	11134
653.7	11207
654.0	11116
654.3	11156
654.6	11159
654.9	11160
655.2	11280
655.5	11206
655.8	11228
656.1	11177
656.4	11094
656.7	11138
657.0	11123
657.3	11132
657.6	11194
657.9	11359
658.2	11245
658.5	11145
658.8	11309
659.1	11233
659.4	11099
659.7	11140
660.0	11186
660.3	11150
660.6	11033
660.9	11134
661.2	11299
661.5	11183
661.8	11096
662.1	11146
662.4	11136
662.7	11153
663.0	11316
663.3	11231
663.6	11226
663.9	11343
664.2	11249
664.5	11275
664.8	11116
665.1	11246
665.4	11276
665.7	11255
666.0	11174
666.3	11279
666.6	11176
666.9	11429
667.2	11163
667.5	11344
667.8	11198
668.1	11207
668.4	11276
668.7	11243
669.0	11158
669.3	11335
669.6	11333
669.9	11403
670.2	11328
670.5	11313
670.8	11285
671.1	11251
671.4	11385
671.7	11381
672.0	11184
672.3	11257
672.6	11169
672.9	11376
673.2	11521
673.5	11353
673.8	11246
674.1	11366
674.4	11279
674.7	11322
675.0	11162
675.3	11229
675.6	11137
675.9	11184
676.2	11379
676.5	11200
676.8	11363
677.1	11239
677.4	11233
677.7	11225
678.0	11413
678.3	11358
678.6	11418
678.9	11278
679.2	11408
679.5	11278
679.8	11457
680.1	11392
680.4	11378
680.7	11326
681.0	11234
681.3	11219
681.6	11318
681.9	11312
682.2	11485
682.5	11326
682.8	11386
683.1	11306
683.4	11366
683.7	11303
684.0	11294
684.3	11245
684.6	11398
684.9	11493
685.2	11331
685.5	11298
685.8	11261
686.1	11281
686.4	11423
686.7	11436
687.0	11271
687.3	11318
687.6	11354
687.9	11344
688.2	11295
688.5	11289
688.8	11294
689.1	11254
689.4	11157
689.7	11471
690.0	11372
690.3	11420
690.6	11337
690.9	11301
691.2	11487
691.5	11387
691.8	11492
692.1	11293
692.4	11474
692.7	11549
693.0	11421
693.3	11273
693.6	11293
693.9	11333
694.2	11422
694.5	11449
694.8	11421
695.1	11452
695.4	11347
695.7	11378
696.0	11512
696.3	11402
696.6	11503
696.9	11430
697.2	11349
697.5	11386
697.8	11421
698.1	11474
698.4	11360
698.7	11482
699.0	11478
699.3	11409
699.6	11554
699.9	11416
700.2	11419
700.5	11308
700.8	11360
701.1	11502
701.4	11407
701.7	11367
702.0	11422
702.3	11455
702.6	11524
702.9	11326
703.2	11391
703.5	11423
703.8	11483
704.1	11383
704.4	11424
704.7	11121
705.0	11299
705.3	11381
705.6	11470
705.9	11506
706.2	11408
706.5	11468
706.8	11318
707.1	11354
707.4	11426
707.7	11422
708.0	11466
708.3	11363
708.6	11411
708.9	11534
709.2	11541
709.5	11594
709.8	11616
710.1	11453
710.4	11456
710.7	11518
711.0	11496
711.3	11343
711.6	11464
711.9	11184
712.2	11455
712.5	11420
712.8	11430
713.1	11610
713.4	11544
713.7	11521
714.0	11400
714.3	11586
714.6	11415
714.9	11513
715.2	11458
715.5	11736
715.8	11574
716.1	11585
716.4	11462
716.7	11491
717.0	11605
717.3	11599
717.6	11370
717.9	11462
718.2	11532
718.5	11579
718.8	11580
719.1	11609
719.4	11538
719.7	11520
720.0	11591
720.3	11515
720.6	11576
720.9	11609
721.2	11589
721.5	11592
721.8	11561
722.1	11449
722.4	11505
722.7	11682
723.0	11694
723.3	11597
723.6	11785
723.9	11638
724.2	11528
724.5	11450
724.8	11562
725.1	11491
725.4	11507
725.7	11542
726.0	11609
726.3	11623
726.6	11595
726.9	11542
727.2	11624
727.5	11542
727.8	11555
728.1	11480
728.4	11554
728.7	11556
729.0	11700
729.3	11494
729.6	11470
729.9	11629
730.2	11815
730.5	11631
730.8	11564
731.1	11547
731.4	11610
731.7	11772
732.0	11586
732.3	11681
732.6	11712
732.9	11755
733.2	11945
733.5	11882
733.8	11865
734.1	11789
734.4	11887
734.7	11838
735.0	11854
735.3	11882
735.6	12145
735.9	12034
736.2	11988
736.5	11991
736.8	12173
737.1	12296
737.4	12209
737.7	12359
738.0	12230
738.3	12359
738.6	12362
738.9	12327
739.2	12375
739.5	12345
739.8	12388
740.1	12470
740.4	12387
740.7	12452
741.0	12529
741.3	12410
741.6	12303
741.9	12531
742.2	12594
742.5	12542
742.8	12679
743.1	12676
743.4	12485
743.7	12410
744.0	12471
744.3	12545
744.6	12408
744.9	12432
745.2	12455
745.5	12327
745.8	12561
746.1	12465
746.4	12273
746.7	12302
747.0	12406
747.3	12563
747.6	12354
747.9	12337
748.2	12428
748.5	12321
748.8	12184
749.1	12337
749.4	12229
749.7	12213
750.0	12236
750.3	12403
750.6	12201
750.9	12370
751.2	12100
751.5	12153
751.8	12384
752.1	12282
752.4	12245
752.7	12132
753.0	12247
753.3	12194
753.6	12292
753.9	12328
754.2	12313
754.5	12315
754.8	12247
755.1	12153
755.4	12231
755.7	12182
756.0	12245
756.3	12255
756.6	12261
756.9	12195
757.2	12285
757.5	12393
757.8	12337
758.1	12343
758.4	12426
758.7	12358
759.0	12252
759.3	12197
759.6	12336
759.9	12367
760.2	12370
760.5	12455
760.8	12364
761.1	12266
761.4	12316
761.7	12389
762.0	12218
762.3	12557
762.6	12463
762.9	12599
763.2	12485
763.5	12371
763.8	12314
764.1	12296
764.4	12377
764.7	12486
765.0	12481
765.3	12510
765.6	12418
765.9	12516
766.2	12459
766.5	12702
766.8	12498
767.1	12503
767.4	12348
767.7	12551
768.0	12587
768.3	12483
768.6	12720
768.9	12553
769.2	12411
769.5	12492
769.8	12473
770.1	12180
770.4	12477
770.7	12426
771.0	12253
771.3	12337
771.6	12545
771.9	12294
772.2	12516
772.5	12542
772.8	12496
773.1	12412
773.4	12343
773.7	12443
774.0	12315
774.3	12615
774.6	12327
774.9	12282
775.2	12455
775.5	12421
775.8	12332
776.1	12386
776.4	12362
776.7	12401
777.0	12475
777.3	12495
777.6	12469
777.9	12395
778.2	12321
778.5	12372
778.8	12375
779.1	12479
779.4	12504
779.7	12598
780.0	12473
780.3	12560
780.6	12410
780.9	12508
781.2	12447
781.5	12428
781.8	12473
782.1	12570
782.4	12599
782.7	12408
783.0	12353
783.3	12515
783.6	12697
783.9	12546
784.2	12548
784.5	12616
784.8	12473
785.1	12511
785.4	12563
785.7	12362
786.0	12450
786.3	12398
786.6	12457
786.9	12413
787.2	12459
787.5	12388
787.8	12520
788.1	12560
788.4	12546
788.7	12533
789.0	12569
789.3	12387
789.6	12420
789.9	12507
790.2	12432
790.5	12524
790.8	12437
791.1	12359
791.4	12645
791.7	12469
792.0	12331
792.3	12435
792.6	12482
792.9	12658
793.2	12509
793.5	12507
793.8	12521
794.1	12488
794.4	12425
794.7	12588
795.0	12563
795.3	12596
795.6	12464
795.9	12552
796.2	12516
796.5	12599
796.8	12454
797.1	12414
797.4	12440
797.7	12353
798.0	12423
798.3	12492
798.6	12327
798.9	12363
799.2	12331
799.5	12249
799.8	12475
800.1	12473
800.4	12388
800.7	12470
801.0	12411
801.3	12504
801.6	12358
801.9	12327
802.2	12349
802.5	12369
802.8	12417
803.1	12518
803.4	12466
803.7	12553
804.0	12445
804.3	12478
804.6	12371
804.9	12390
805.2	12479
805.5	12444
805.8	12503
806.1	12541
806.4	12415
806.7	12396
807.0	12429
807.3	12532
807.6	12327
807.9	12460
808.2	12431
808.5	12434
808.8	12383
809.1	12350
809.4	12411
809.7	12432
810.0	12466
810.3	12451
810.6	12428
810.9	12450
811.2	12362
811.5	12323
811.8	12447
812.1	12463
812.4	12472
812.7	12343
813.0	12261
813.3	12381
813.6	12464
813.9	12385
814.2	12538
814.5	12450
814.8	12518
815.1	12398
815.4	12512
815.7	12429
816.0	12398
816.3	12331
816.6	12335
816.9	12362
817.2	12446
817.5	12296
817.8	12176
818.1	12376
818.4	12429
818.7	12386
819.0	12414
819.3	12409
819.6	12194
819.9	12244
820.2	12477
820.5	12474
820.8	12294
821.1	12302
821.4	12351
821.7	12407
822.0	12502
822.3	12335
822.6	12421
822.9	12430
823.2	12445
823.5	12395
823.8	12242
824.1	12451
824.4	12444
824.7	12270
825.0	12333
825.3	12231
825.6	12189
825.9	12275
826.2	12394
826.5	12240
826.8	12515
827.1	12270
827.4	12145
827.7	12237
828.0	12417
828.3	12404
828.6	12314
828.9	12155
829.2	12306
829.5	12431
829.8	12283
830.1	12373
830.4	12356
830.7	12406
831.0	12418
831.3	12338
831.6	12231
831.9	12401
832.2	12456
832.5	12510
832.8	12360
833.1	12172
833.4	12234
833.7	12244
834.0	12279
834.3	12299
834.6	12224
834.9	12351
835.2	12311
835.5	12289
835.8	12323
836.1	12362
836.4	12243
836.7	12221
837.0	12348
837.3	12387
837.6	12133
837.9	12121
838.2	12176
838.5	12183
838.8	12206
839.1	11947
839.4	12007
839.7	12119
840.0	12238
840.3	12212
840.6	12177
840.9	12014
841.2	12021
841.5	12149
841.8	12067
842.1	12053
842.4	12270
842.7	12128
843.0	12297
843.3	12322
843.6	12215
843.9	12382
844.2	12306
844.5	12207
844.8	12219
845.1	12140
845.4	12138
845.7	12126
846.0	12164
846.3	12170
846.6	12106
846.9	12411
847.2	12216
847.5	12213
847.8	12131
848.1	12181
848.4	12314
848.7	12252
849.0	12304
849.3	12235
849.6	12300
849.9	12295
850.2	12209
850.5	12169
850.8	12190
851.1	12093
851.4	12174
851.7	12061
852.0	12069
852.3	12119
852.6	12029
852.9	12033
853.2	12230
853.5	12280
853.8	12138
854.1	12059
854.4	12080
854.7	12139
855.0	12034
855.3	12137
855.6	12101
855.9	12161
856.2	12160
856.5	12083
856.8	12038
857.1	12155
857.4	12257
857.7	12360
858.0	12197
858.3	12031
858.6	12113
858.9	12213
859.2	12236
859.5	12119
859.8	12137
860.1	12146
860.4	12101
860.7	12194
861.0	12133
861.3	12243
861.6	12203
861.9	12048
862.2	12314
862.5	12239
862.8	12130
863.1	12063
863.4	12113
863.7	12090
864.0	12151
864.3	12110
864.6	12243
864.9	12137
865.2	12177
865.5	12058
865.8	12042
866.1	12253
866.4	12370
866.7	12120
867.0	12055
867.3	12106
867.6	12081
867.9	12217
868.2	12306
868.5	12063
868.8	12065
869.1	12069
869.4	12025
869.7	12107
870.0	12135
870.3	12095
870.6	12193
870.9	12287
871.2	12074
871.5	12277
871.8	12139
872.1	12174
872.4	12113
872.7	12097
873.0	12225
873.3	12141
873.6	12041
873.9	12284
874.2	12323
874.5	12120
874.8	12222
875.1	12296
875.4	12328
875.7	12128
876.0	12110
876.3	12258
876.6	12333
876.9	12308
877.2	12081
877.5	12125
877.8	12065
878.1	12076
878.4	12103
878.7	12328
879.0	12110
879.3	12110
879.6	12197
879.9	12091
880.2	12118
880.5	12199
880.8	12055
881.1	12107
881.4	12194
881.7	12046
882.0	12185
882.3	11999
882.6	12140
882.9	12141
883.2	12124
883.5	12203
883.8	12136
884.1	12307
884.4	12206
884.7	12143
885.0	12307
885.3	12143
885.6	12225
885.9	12338
886.2	12183
886.5	12031
886.8	12218
887.1	12282
887.4	12130
887.7	12033
888.0	12100
888.3	12279
888.6	12185
888.9	12107
889.2	12214
889.5	12243
889.8	12352
890.1	12192
890.4	12303
890.7	12284
891.0	12259
891.3	12235
891.6	12192
891.9	12203
892.2	12115
892.5	12107
892.8	12300
893.1	12244
893.4	12246
893.7	12327
894.0	12258
894.3	12420
894.6	12175
894.9	12036
895.2	12235
895.5	12197
895.8	12158
896.1	12121
896.4	12218
896.7	12221
897.0	12300
897.3	12103
897.6	12101
897.9	12159
898.2	11999
898.5	12153
898.8	12094
899.1	12231
899.4	12088
899.7	12083
900.0	12061
900.3	12155
900.6	12083
900.9	12283
901.2	12148
901.5	12173
901.8	12040
902.1	11969
902.4	12086
902.7	12167
903.0	12142
903.3	12255
903.6	12115
903.9	12243
904.2	12241
904.5	12106
904.8	12175
905.1	12130
905.4	12054
905.7	12079
906.0	12141
906.3	12142
906.6	12061
906.9	12274
907.2	12158
907.5	12028
907.8	12015
908.1	12185
908.4	12141
908.7	12087
909.0	12062
909.3	12020
909.6	12071
909.9	12106
910.2	12103
910.5	12096
910.8	12166
911.1	12112
911.4	11954
911.7	11996
912.0	12239
912.3	12135
912.6	12191
912.9	12136
913.2	12129
913.5	12007
913.8	12067
914.1	11984
914.4	12109
914.7	12048
915.0	12064
915.3	12173
915.6	11995
915.9	12042
916.2	12148
916.5	11991
916.8	12019
917.1	11904
917.4	12044
917.7	12131
918.0	12036
918.3	12041
918.6	12179
918.9	12372
919.2	12183
919.5	12084
919.8	12169
920.1	12013
920.4	12145
920.7	12076
921.0	12148
921.3	12071
921.6	12025
921.9	12100
922.2	12236
922.5	11955
922.8	12090
923.1	11979
923.4	12194
923.7	12193
924.0	12090
924.3	12130
924.6	12174
924.9	12127
925.2	12341
925.5	12030
925.8	12078
926.1	12243
926.4	12034
926.7	12056
927.0	12048
927.3	12181
927.6	12301
927.9	12021
928.2	12017
928.5	12114
928.8	12155
929.1	11878
929.4	12039
929.7	12059
930.0	12076
930.3	11981
930.6	12294
930.9	12090
931.2	12042
931.5	12128
931.8	12237
932.1	12183
932.4	12109
932.7	12062
933.0	12183
933.3	12062
933.6	12237
933.9	12021
934.2	12038
934.5	12175
934.8	11998
935.1	12089
935.4	12240
935.7	12088
936.0	12080
936.3	12025
936.6	12178
936.9	12254
937.2	12184
937.5	12088
937.8	12226
938.1	12053
938.4	12093
938.7	12130
939.0	12212
939.3	11948
939.6	12009
939.9	11989
940.2	12251
940.5	12054
940.8	12081
941.1	12027
941.4	12043
941.7	12248
942.0	12204
942.3	12228
942.6	12224
942.9	12008
943.2	12175
943.5	12360
943.8	12197
944.1	12147
944.4	12069
944.7	12127
945.0	12114
945.3	12008
945.6	12058
945.9	12027
946.2	12156
946.5	12179
946.8	12229
947.1	12298
947.4	12231
947.7	12134
948.0	12237
948.3	12125
948.6	12121
948.9	12234
949.2	12114
949.5	12134
949.8	12062
950.1	12252
950.4	12216
950.7	12163
951.0	12071
951.3	12056
951.6	12266
951.9	12186
952.2	12258
952.5	12166
952.8	12089
953.1	12198
953.4	12065
953.7	12211
954.0	12207
954.3	12258
954.6	12119
954.9	12156
955.2	12266
955.5	12126
955.8	12144
956.1	12306
956.4	12022
956.7	12275
957.0	12277
957.3	12196
957.6	12153
957.9	12161
958.2	12126
958.5	12280
958.8	12170
959.1	12234
959.4	12128
959.7	12220
960.0	12377
960.3	12294
960.6	12094
960.9	12130
961.2	12145
961.5	12069
961.8	12192
962.1	12159
962.4	12226
962.7	12191
963.0	12237
963.3	12466
963.6	12475
963.9	12167
964.2	12282
964.5	12183
964.8	12214
965.1	12038
965.4	12237
965.7	12422
966.0	12354
966.3	12305
966.6	12237
966.9	12209
967.2	12342
967.5	12281
967.8	12232
968.1	12350
968.4	11940
968.7	12042
969.0	12041
969.3	12120
969.6	12007
969.9	12188
970.2	12215
970.5	12172
970.8	12464
971.1	12400
971.4	12198
971.7	12227
972.0	12261
972.3	12434
972.6	12442
972.9	12318
973.2	12416
973.5	12305
973.8	12311
974.1	12465
974.4	12598
974.7	12615
975.0	12673
975.3	12694
975.6	12826
975.9	12794
976.2	12776
976.5	12673
976.8	12633
977.1	12874
977.4	12725
977.7	12862
978.0	12972
978.3	13009
978.6	12954
978.9	12919
979.2	13011
979.5	13156
979.8	13098
980.1	13008
980.4	13103
980.7	13256
981.0	13446
981.3	13709
981.6	13513
981.9	13664
982.2	13882
982.5	14033
982.8	13999
983.1	14162
983.4	14214
983.7	14242
984.0	14368
984.3	14451
984.6	14813
984.9	14868
985.2	15134
985.5	15257
985.8	15304
986.1	15305
986.4	15349
986.7	15452
987.0	15628
987.3	15671
987.6	15903
987.9	16132
988.2	15989
988.5	16121
988.8	16100
989.1	16190
989.4	16504
989.7	16542
990.0	16578
990.3	16786
990.6	16652
990.9	16710
991.2	16644
991.5	16655
991.8	16754
992.1	16730
992.4	16884
992.7	16664
993.0	16919
993.3	16747
993.6	16634
993.9	16599
994.2	16738
994.5	16843
994.8	16749
995.1	16947
995.4	16720
995.7	16844
996.0	16857
996.3	16793
996.6	16777
996.9	16772
997.2	16629
997.5	16556
997.8	16602
998.1	16502
998.4	16593
998.7	16537
999.0	16616
999.3	16364
999.6	16442
999.9	16511
1000.2	16438
1000.5	16335
1000.8	16238
1001.1	16224
1001.4	16027
1001.7	16122
1002.0	16101
1002.3	16028
1002.6	15941
1002.9	15910
1003.2	16168
1003.5	16220
1003.8	16075
1004.1	16161
1004.4	15927
1004.7	16129
1005.0	16115
1005.3	16237
1005.6	16252
1005.9	16480
1006.2	16287
1006.5	16266
1006.8	16254
1007.1	16523
1007.4	16826
1007.7	16432
1008.0	16429
1008.3	16399
1008.6	16391
1008.9	16465
1009.2	16418
1009.5	16471
1009.8	16640
1010.1	16800
1010.4	16572
1010.7	16674
1011.0	16574
1011.3	16784
1011.6	16695
1011.9	16649
1012.2	17229
1012.5	17097
1012.8	17333
1013.1	17414
1013.4	17279
1013.7	17425
1014.0	17268
1014.3	17349
1014.6	17159
1014.9	16964
1015.2	16945
1015.5	17152
1015.8	16838
1016.1	16891
1016.4	16676
1016.7	16796
1017.0	16566
1017.3	16453
1017.6	16395
1017.9	16499
1018.2	16378
1018.5	16443
1018.8	16526
1019.1	16424
1019.4	16397
1019.7	16369
1020.0	16334
1020.3	16477
1020.6	16439
1020.9	16506
1021.2	16376
1021.5	16532
1021.8	16412
1022.1	16227
1022.4	16368
1022.7	16426
1023.0	16498
1023.3	16314
1023.6	16275
1023.9	16416
1024.2	16461
1024.5	16514
1024.8	16479
1025.1	16319
1025.4	16459
1025.7	16573
1026.0	16384
1026.3	16451
1026.6	16578
1026.9	16564
1027.2	16411
1027.5	16416
1027.8	16443
1028.1	16716
1028.4	16613
1028.7	16411
1029.0	16490
1029.3	16591
1029.6	16540
1029.9	16701
1030.2	16586
1030.5	16418
1030.8	16574
1031.1	16708
1031.4	16739
1031.7	16460
1032.0	16256
1032.3	16477
1032.6	16570
1032.9	16691
1033.2	16706
1033.5	16667
1033.8	16412
1034.1	16613
1034.4	16550
1034.7	16565
1035.0	16663
1035.3	16680
1035.6	16671
1035.9	16639
1036.2	16674
1036.5	16829
1036.8	16711
1037.1	16742
1037.4	16669
1037.7	16766
1038.0	16617
1038.3	16456
1038.6	16699
1038.9	16891
1039.2	16839
1039.5	16839
1039.8	16672
1040.1	16612
1040.4	16808
1040.7	16888
1041.0	16856
1041.3	16510
1041.6	16624
1041.9	16707
1042.2	16753
1042.5	16931
1042.8	16824
1043.1	16729
1043.4	16649
1043.7	16779
1044.0	16796
1044.3	16820
1044.6	16862
1044.9	16552
1045.2	16774
1045.5	16910
1045.8	16919
1046.1	16791
1046.4	16871
1046.7	16700
1047.0	16888
1047.3	16713
1047.6	16601
1047.9	16815
1048.2	16920
1048.5	16693
1048.8	16740
1049.1	16772
1049.4	16885
1049.7	16895
1050.0	16972
1050.3	16737
1050.6	16828
1050.9	17041
1051.2	17127
1051.5	16738
1051.8	16610
1052.1	16948
1052.4	16918
1052.7	16865
1053.0	17030
1053.3	16839
1053.6	16834
1053.9	16881
1054.2	17095
1054.5	16981
1054.8	16897
1055.1	16840
1055.4	16967
1055.7	16926
1056.0	17112
1056.3	17327
1056.6	16999
1056.9	16948
1057.2	17164
1057.5	17188
1057.8	17189
1058.1	16908
1058.4	17009
1058.7	16982
1059.0	16889
1059.3	17038
1059.6	17265
1059.9	17147
1060.2	17117
1060.5	17235
1060.8	17205
1061.1	16939
1061.4	17162
1061.7	17230
1062.0	17172
1062.3	17202
1062.6	16764
1062.9	16936
1063.2	17096
1063.5	17097
1063.8	17204
1064.1	17199
1064.4	16875
1064.7	17005
1065.0	17399
1065.3	17257
1065.6	17238
1065.9	16997
1066.2	17342
1066.5	17057
1066.8	17174
1067.1	17389
1067.4	17201
1067.7	17164
1068.0	17264
1068.3	17342
1068.6	17285
1068.9	17227
1069.2	17328
1069.5	17278
1069.8	17353
1070.1	17422
1070.4	17373
1070.7	17552
1071.0	17322
1071.3	17376
1071.6	17337
1071.9	17295
1072.2	17380
1072.5	17549
1072.8	17420
1073.1	17259
1073.4	17234
1073.7	17352
1074.0	17224
1074.3	17313
1074.6	17382
1074.9	17413
1075.2	17516
1075.5	17639
1075.8	17552
1076.1	17422
1076.4	17577
1076.7	17480
1077.0	17636
1077.3	17488
1077.6	17607
1077.9	17393
1078.2	17461
1078.5	17464
1078.8	17572
1079.1	17581
1079.4	17590
1079.7	17736
1080.0	17654
1080.3	17776
1080.6	17738
1080.9	17667
1081.2	17715
1081.5	17696
1081.8	17812
1082.1	17684
1082.4	17811
1082.7	17638
1083.0	17749
1083.3	17627
1083.6	17699
1083.9	17887
1084.2	17928
1084.5	17824
1084.8	17733
1085.1	17916
1085.4	17762
1085.7	17903
1086.0	17832
1086.3	17854
1086.6	18001
1086.9	17839
1087.2	17916
1087.5	17743
1087.8	17827
1088.1	17851
1088.4	18091
1088.7	17947
1089.0	17969
1089.3	18164
1089.6	18096
1089.9	18056
1090.2	18096
1090.5	17976
1090.8	17925
1091.1	18185
1091.4	18061
1091.7	18064
1092.0	17975
1092.3	18147
1092.6	18324
1092.9	18456
1093.2	18193
1093.5	18175
1093.8	18437
1094.1	18378
1094.4	18244
1094.7	18493
1095.0	18276
1095.3	18432
1095.6	18247
1095.9	18281
1096.2	18591
1096.5	18389
1096.8	18416
1097.1	18414
1097.4	18357
1097.7	18594
1098.0	18627
1098.3	18716
1098.6	18861
1098.9	18984
1099.2	19094
1099.5	18872
1099.8	19123
1100.1	19362
